Position [V]	Intensität [Skt]
0,00000	2,43273
0,00880000	2,01262
0,0176000	2,01262
0,0264000	1,75860
0,0352000	1,99308
0,0440000	2,19825
0,0528000	2,31549
0,0616000	2,36434
0,0704000	2,37411
0,0792000	2,36434
0,0880000	2,32526
0,0968000	2,34480
0,105600	2,30572
0,114400	2,33503
0,123200	2,28618
0,132000	2,27641
0,140800	2,23733
0,149600	2,17871
0,158400	2,13963
0,167200	2,12009
0,176000	2,07124
0,184800	2,01262
0,193600	1,95400
0,202400	1,90515
0,211200	1,84653
0,220000	1,79768
0,228800	1,77814
0,237600	1,70975
0,246400	1,69998
0,255200	1,65113
0,264000	1,63159
0,272800	1,58274
0,281600	1,61205
0,290400	1,59251
0,299200	1,58274
0,308000	1,59251
0,316800	1,61205
0,325600	1,62182
0,334400	1,65113
0,343200	1,68044
0,352000	1,71952
0,360800	1,75860
0,369600	1,78791
0,378400	1,83676
0,387200	1,87584
0,396000	1,89538
0,404800	1,95400
0,413600	1,99308
0,422400	2,01262
0,431200	2,04193
0,440000	2,06147
0,448800	2,07124
0,457600	2,09078
0,466400	2,11032
0,475200	2,12009
0,484000	2,12009
0,492800	2,12986
0,501600	2,12009
0,510400	2,12986
0,519200	2,12986
0,528000	2,14940
0,536800	2,14940
0,545600	2,14940
0,554400	2,16894
0,563200	2,17871
0,572000	2,19825
0,580800	2,20802
0,589600	2,20802
0,598400	2,22756
0,607200	2,21779
0,616000	2,22756
0,624800	2,21779
0,633600	2,18848
0,642400	2,18848
0,651200	2,16894
0,660000	2,13963
0,668800	2,08101
0,677600	2,04193
0,686400	2,00285
0,695200	1,94423
0,704000	1,88561
0,712800	1,81722
0,721600	1,75860
0,730400	1,69021
0,739200	1,64136
0,748000	1,58274
0,756800	1,54366
0,765600	1,51435
0,774400	1,49481
0,783200	1,47527
0,792000	1,49481
0,800800	1,50458
0,809600	1,55343
0,818400	1,59251
0,827200	1,65113
0,836000	1,71952
0,844800	1,80745
0,853600	1,89538
0,862400	1,98331
0,871200	2,09078
0,880000	2,18848
0,888800	2,27641
0,897600	2,36434
0,906400	2,44250
0,915200	2,50112
0,924000	2,53043
0,932800	2,56951
0,941600	2,57928
0,950400	2,55974
0,959200	2,54020
0,968000	2,49135
0,976800	2,45227
0,985600	2,35457
0,994400	2,28618
1,00320	2,20802
1,01200	2,11032
1,02080	2,02239
1,02960	1,93446
1,03840	1,85630
1,04720	1,77814
1,05600	1,72929
1,06480	1,66090
1,07360	1,63159
1,08240	1,60228
1,09120	1,58274
1,10000	1,59251
1,10880	1,61205
1,11760	1,61205
1,12640	1,64136
1,13520	1,67067
1,14400	1,70975
1,15280	1,73906
1,16160	1,77814
1,17040	1,79768
1,17920	1,84653
1,18800	1,89538
1,19680	1,90515
1,20560	1,92469
1,21440	1,94423
1,22320	1,96377
1,23200	1,97354
1,24080	1,99308
1,24960	2,01262
1,25840	2,05170
1,26720	2,06147
1,27600	2,11032
1,28480	2,13963
1,29360	2,18848
1,30240	2,20802
1,31120	2,25687
1,32000	2,29595
1,32880	2,33503
1,33760	2,37411
1,34640	2,40342
1,35520	2,41319
1,36400	2,41319
1,37280	2,41319
1,38160	2,38388
1,39040	2,34480
1,39920	2,28618
1,40800	2,23733
1,41680	2,13963
1,42560	2,03216
1,43440	1,93446
1,44320	1,82699
1,45200	1,71952
1,46080	1,62182
1,46960	1,53389
1,47840	1,45573
1,48720	1,38734
1,49600	1,34826
1,50480	1,32872
1,51360	1,32872
1,52240	1,33849
1,53120	1,37757
1,54000	1,42642
1,54880	1,52412
1,55760	1,62182
1,56640	1,71952
1,57520	1,86607
1,58400	1,99308
1,59280	2,12986
1,60160	2,26664
1,61040	2,36434
1,61920	2,49135
1,62800	2,55974
1,63680	2,60859
1,64560	2,64767
1,65440	2,65744
1,66320	2,63790
1,67200	2,59882
1,68080	2,55974
1,68960	2,48158
1,69840	2,39365
1,70720	2,29595
1,71600	2,19825
1,72480	2,10055
1,73360	2,01262
1,74240	1,92469
1,75120	1,83676
1,76000	1,78791
1,76880	1,71952
1,77760	1,67067
1,78640	1,64136
1,79520	1,62182
1,80400	1,63159
1,81280	1,64136
1,82160	1,64136
1,83040	1,64136
1,83920	1,65113
1,84800	1,67067
1,85680	1,69021
1,86560	1,69998
1,87440	1,70975
1,88320	1,70975
1,89200	1,72929
1,90080	1,74883
1,90960	1,76837
1,91840	1,79768
1,92720	1,81722
1,93600	1,85630
1,94480	1,90515
1,95360	1,97354
1,96240	2,04193
1,97120	2,12986
1,98000	2,22756
1,98880	2,32526
1,99760	2,36434
2,00640	2,48158
2,01520	2,55974
2,02400	2,62813
2,03280	2,65744
2,04160	2,67698
2,05040	2,66721
2,05920	2,61836
2,06800	2,55974
2,07680	2,47181
2,08560	2,33503
2,09440	2,21779
2,10320	2,07124
2,11200	1,91492
2,12080	1,75860
2,12960	1,61205
2,13840	1,47527
2,14720	1,36780
2,15600	1,26033
2,16480	1,20171
2,17360	1,16263
2,18240	1,14309
2,19120	1,17240
2,20000	1,20171
2,20880	1,28964
2,21760	1,40688
2,22640	1,51435
2,23520	1,67067
2,24400	1,81722
2,25280	1,98331
2,26160	2,13963
2,27040	2,29595
2,27920	2,43273
2,28800	2,54997
2,29680	2,63790
2,30560	2,69652
2,31440	2,72583
2,32320	2,73560
2,33200	2,72583
2,34080	2,65744
2,34960	2,59882
2,35840	2,49135
2,36720	2,40342
2,37600	2,30572
2,38480	2,19825
2,39360	2,11032
2,40240	2,03216
2,41120	1,94423
2,42000	1,86607
2,42880	1,80745
2,43760	1,77814
2,44640	1,72929
2,45520	1,69021
2,46400	1,69021
2,47280	1,66090
2,48160	1,62182
2,49040	1,62182
2,49920	1,60228
2,50800	1,57297
2,51680	1,56320
2,52560	1,53389
2,53440	1,52412
2,54320	1,51435
2,55200	1,52412
2,56080	1,52412
2,56960	1,54366
2,57840	1,59251
2,58720	1,66090
2,59600	1,73906
2,60480	1,84653
2,61360	1,97354
2,62240	2,11032
2,63120	2,25687
2,64000	2,40342
2,64880	2,54020
2,65760	2,67698
2,66640	2,78445
2,67520	2,88215
2,68400	2,94077
2,69280	2,96031
2,70160	2,94077
2,71040	2,89192
2,71920	2,78445
2,72800	2,64767
2,73680	2,47181
2,74560	2,28618
2,75440	2,09078
2,76320	1,87584
2,77200	1,67067
2,78080	1,47527
2,78960	1,31895
2,79840	1,18217
2,80720	1,08447
2,81600	1,01608
2,82480	0,986770
2,83360	0,996540
2,84240	1,02585
2,85120	1,10401
2,86000	1,20171
2,86880	1,32872
2,87760	1,49481
2,88640	1,67067
2,89520	1,85630
2,90400	2,03216
2,91280	2,22756
2,92160	2,38388
2,93040	2,51089
2,93920	2,61836
2,94800	2,69652
2,95680	2,74537
2,96560	2,76491
2,97440	2,77468
2,98320	2,72583
2,99200	2,66721
3,00080	2,59882
3,00960	2,52066
3,01840	2,44250
3,02720	2,35457
3,03600	2,26664
3,04480	2,19825
3,05360	2,12009
3,06240	2,05170
3,07120	2,00285
3,08000	1,92469
3,08880	1,88561
3,09760	1,81722
3,10640	1,74883
3,11520	1,69021
3,12400	1,64136
3,13280	1,56320
3,14160	1,49481
3,15040	1,41665
3,15920	1,34826
3,16800	1,29941
3,17680	1,27010
3,18560	1,24079
3,19440	1,23102
3,20320	1,26033
3,21200	1,29941
3,22080	1,37757
3,22960	1,47527
3,23840	1,62182
3,24720	1,78791
3,25600	1,97354
3,26480	2,17871
3,27360	2,38388
3,28240	2,60859
3,29120	2,80399
3,30000	2,97985
3,30880	3,12640
3,31760	3,23387
3,32640	3,28272
3,33520	3,28272
3,34400	3,23387
3,35280	3,10686
3,36160	2,95054
3,37040	2,75514
3,37920	2,51089
3,38800	2,24710
3,39680	1,98331
3,40560	1,72929
3,41440	1,50458
3,42320	1,27010
3,43200	1,11378
3,44080	0,977000
3,44960	0,898840
3,45840	0,849990
3,46720	0,840220
3,47600	0,879300
3,48480	0,937920
3,49360	1,04539
3,50240	1,16263
3,51120	1,30918
3,52000	1,52412
3,52880	1,69998
3,53760	1,91492
3,54640	2,07124
3,55520	2,26664
3,56400	2,42296
3,57280	2,54997
3,58160	2,63790
3,59040	2,70629
3,59920	2,74537
3,60800	2,77468
3,61680	2,75514
3,62560	2,75514
3,63440	2,71606
3,64320	2,65744
3,65200	2,61836
3,66080	2,54997
3,66960	2,50112
3,67840	2,44250
3,68720	2,38388
3,69600	2,30572
3,70480	2,23733
3,71360	2,16894
3,72240	2,07124
3,73120	1,97354
3,74000	1,86607
3,74880	1,75860
3,75760	1,65113
3,76640	1,50458
3,77520	1,36780
3,78400	1,24079
3,79280	1,15286
3,80160	1,06493
3,81040	0,986770
3,81920	0,947690
3,82800	0,937920
3,83680	0,977000
3,84560	1,00631
3,85440	1,10401
3,86320	1,25056
3,87200	1,42642
3,88080	1,65113
3,88960	1,91492
3,89840	2,17871
3,90720	2,47181
3,91600	2,74537
3,92480	2,99939
3,93360	3,23387
3,94240	3,40973
3,95120	3,52697
3,96000	3,58559
3,96880	3,58559
3,97760	3,51720
3,98640	3,38042
3,99520	3,18502
4,00400	2,94077
4,01280	2,65744
4,02160	2,35457
4,03040	2,06147
4,03920	1,76837
4,04800	1,48504
4,05680	1,26033
4,06560	1,06493
4,07440	0,918380
4,08320	0,820680
4,09200	0,771830
4,10080	0,752290
4,10960	0,762060
4,11840	0,840220
4,12720	0,928150
4,13600	1,06493
4,14480	1,20171
4,15360	1,37757
4,16240	1,56320
4,17120	1,75860
4,18000	1,93446
4,18880	2,12986
4,19760	2,27641
4,20640	2,40342
4,21520	2,53043
4,22400	2,60859
4,23280	2,67698
4,24160	2,73560
4,25040	2,77468
4,25920	2,78445
4,26800	2,80399
4,27680	2,80399
4,28560	2,79422
4,29440	2,77468
4,30320	2,75514
4,31200	2,73560
4,32080	2,68675
4,32960	2,63790
4,33840	2,55974
4,34720	2,46204
4,35600	2,34480
4,36480	2,20802
4,37360	2,05170
4,38240	1,88561
4,39120	1,69998
4,40000	1,51435
4,40880	1,32872
4,41760	1,16263
4,42640	1,01608
4,43520	0,889070
4,44400	0,801140
4,45280	0,722980
4,46160	0,713210
4,47040	0,722980
4,47920	0,771830
4,48800	0,879300
4,49680	1,02585
4,50560	1,21148
4,51440	1,47527
4,52320	1,74883
4,53200	2,07124
4,54080	2,40342
4,54960	2,73560
4,55840	3,03847
4,56720	3,31203
4,57600	3,53674
4,58480	3,70283
4,59360	3,79076
4,60240	3,82007
4,61120	3,76145
4,62000	3,63444
4,62880	3,44881
4,63760	3,18502
4,64640	2,91146
4,65520	2,58905
4,66400	2,26664
4,67280	1,94423
4,68160	1,65113
4,69040	1,37757
4,69920	1,16263
4,70800	0,986770
4,71680	0,869530
4,72560	0,781600
4,73440	0,752290
4,74320	0,732750
4,75200	0,771830
4,76080	0,830450
4,76960	0,918380
4,77840	1,04539
4,78720	1,18217
4,79600	1,32872
4,80480	1,49481
4,81360	1,67067
4,82240	1,82699
4,83120	1,99308
4,84000	2,12009
4,84880	2,25687
4,85760	2,37411
4,86640	2,47181
4,87520	2,56951
4,88400	2,64767
4,89280	2,71606
4,90160	2,78445
4,91040	2,84307
4,91920	2,89192
4,92800	2,94077
4,93680	2,96031
4,94560	2,97008
4,95440	2,97008
4,96320	2,96031
4,97200	2,91146
4,98080	2,81376
4,98960	2,71606
4,99840	2,56951
5,00720	2,41319
5,01600	2,20802
5,02480	2,00285
5,03360	1,77814
5,04240	1,53389
5,05120	1,30918
5,06000	1,10401
5,06880	0,918380
5,07760	0,781600
5,08640	0,664360
5,09520	0,595970
5,10400	0,566660
5,11280	0,566660
5,12160	0,625280
5,13040	0,713210
5,13920	0,859760
5,14800	1,06493
5,15680	1,29941
5,16560	1,59251
5,17440	1,92469
5,18320	2,27641
5,19200	2,62813
5,20080	2,95054
5,20960	3,25341
5,21840	3,50743
5,22720	3,69306
5,23600	3,82007
5,24480	3,87869
5,25360	3,84938
5,26240	3,76145
5,27120	3,59536
5,28000	3,39019
5,28880	3,11663
5,29760	2,83330
5,30640	2,52066
5,31520	2,20802
5,32400	1,90515
5,33280	1,64136
5,34160	1,39711
5,35040	1,19194
5,35920	1,04539
5,36800	0,928150
5,37680	0,849990
5,38560	0,810910
5,39440	0,820680
5,40320	0,859760
5,41200	0,898840
5,42080	0,977000
5,42960	1,06493
5,43840	1,17240
5,44720	1,28964
5,45600	1,41665
5,46480	1,54366
5,47360	1,67067
5,48240	1,80745
5,49120	1,90515
5,50000	2,03216
5,50880	2,15917
5,51760	2,26664
5,52640	2,36434
5,53520	2,46204
5,54400	2,56951
5,55280	2,65744
5,56160	2,76491
5,57040	2,86261
5,57920	2,95054
5,58800	3,01893
5,59680	3,07755
5,60560	3,11663
5,61440	3,12640
5,62320	3,10686
5,63200	3,03847
5,64080	2,94077
5,64960	2,80399
5,65840	2,64767
5,66720	2,44250
5,67600	2,20802
5,68480	1,96377
5,69360	1,71952
5,70240	1,46550
5,71120	1,23102
5,72000	1,03562
5,72880	0,849990
5,73760	0,722980
5,74640	0,625280
5,75520	0,556890
5,76400	0,547120
5,77280	0,566660
5,78160	0,644820
5,79040	0,722980
5,79920	0,889070
5,80800	1,08447
5,81680	1,33849
5,82560	1,61205
5,83440	1,93446
5,84320	2,25687
5,85200	2,58905
5,86080	2,89192
5,86960	3,15571
5,87840	3,38042
5,88720	3,54651
5,89600	3,66375
5,90480	3,70283
5,91360	3,67352
5,92240	3,59536
5,93120	3,46835
5,94000	3,28272
5,94880	3,07755
5,95760	2,82353
5,96640	2,56951
5,97520	2,31549
5,98400	2,05170
5,99280	1,81722
6,00160	1,60228
6,01040	1,41665
6,01920	1,27987
6,02800	1,17240
6,03680	1,08447
6,04560	1,03562
6,05440	1,01608
6,06320	1,00631
6,07200	1,03562
6,08080	1,08447
6,08960	1,14309
6,09840	1,20171
6,10720	1,27010
6,11600	1,34826
6,12480	1,41665
6,13360	1,49481
6,14240	1,58274
6,15120	1,66090
6,16000	1,73906
6,16880	1,84653
6,17760	1,92469
6,18640	2,03216
6,19520	2,13963
6,20400	2,25687
6,21280	2,38388
6,22160	2,50112
6,23040	2,62813
6,23920	2,75514
6,24800	2,87238
6,25680	2,97008
6,26560	3,04824
6,27440	3,12640
6,28320	3,15571
6,29200	3,15571
6,30080	3,12640
6,30960	3,04824
6,31840	2,93100
6,32720	2,78445
6,33600	2,60859
6,34480	2,38388
6,35360	2,13963
6,36240	1,91492
6,37120	1,65113
6,38000	1,40688
6,38880	1,21148
6,39760	1,02585
6,40640	0,859760
6,41520	0,752290
6,42400	0,674130
6,43280	0,635050
6,44160	0,635050
6,45040	0,674130
6,45920	0,742520
6,46800	0,859760
6,47680	1,01608
6,48560	1,18217
6,49440	1,42642
6,50320	1,68044
6,51200	1,95400
6,52080	2,22756
6,52960	2,50112
6,53840	2,73560
6,54720	2,96031
6,55600	3,14594
6,56480	3,27295
6,57360	3,35111
6,58240	3,39996
6,59120	3,39019
6,60000	3,32180
6,60880	3,24364
6,61760	3,09709
6,62640	2,91146
6,63520	2,76491
6,64400	2,55974
6,65280	2,35457
6,66160	2,16894
6,67040	1,99308
6,67920	1,81722
6,68800	1,68044
6,69680	1,55343
6,70560	1,46550
6,71440	1,37757
6,72320	1,33849
6,73200	1,29941
6,74080	1,27010
6,74960	1,27010
6,75840	1,27010
6,76720	1,27987
6,77600	1,29941
6,78480	1,31895
6,79360	1,34826
6,80240	1,37757
6,81120	1,42642
6,82000	1,46550
6,82880	1,49481
6,83760	1,54366
6,84640	1,61205
6,85520	1,67067
6,86400	1,74883
6,87280	1,82699
6,88160	1,93446
6,89040	2,04193
6,89920	2,16894
6,90800	2,31549
6,91680	2,44250
6,92560	2,56951
6,93440	2,70629
6,94320	2,81376
6,95200	2,93100
6,96080	3,03847
6,96960	3,06778
6,97840	3,10686
6,98720	3,11663
6,99600	3,06778
7,00480	2,97985
7,01360	2,86261
7,02240	2,71606
7,03120	2,54020
7,04000	2,33503
7,04880	2,12986
7,05760	1,89538
7,06640	1,68044
7,07520	1,47527
7,08400	1,27987
7,09280	1,13332
7,10160	0,996540
7,11040	0,898840
7,11920	0,830450
7,12800	0,791370
7,13680	0,781600
7,14560	0,830450
7,15440	0,898840
7,16320	0,996540
7,17200	1,12355
7,18080	1,27987
7,18960	1,46550
7,19840	1,66090
7,20720	1,87584
7,21600	2,09078
7,22480	2,30572
7,23360	2,49135
7,24240	2,66721
7,25120	2,80399
7,26000	2,92123
7,26880	2,98962
7,27760	3,03847
7,28640	3,03847
7,29520	3,02870
7,30400	2,96031
7,31280	2,88215
7,32160	2,78445
7,33040	2,66721
7,33920	2,54020
7,34800	2,41319
7,35680	2,28618
7,36560	2,17871
7,37440	2,05170
7,38320	1,94423
7,39200	1,86607
7,40080	1,77814
7,40960	1,70975
7,41840	1,65113
7,42720	1,61205
7,43600	1,57297
7,44480	1,54366
7,45360	1,52412
7,46240	1,50458
7,47120	1,48504
7,48000	1,46550
7,48880	1,45573
7,49760	1,44596
7,50640	1,43619
7,51520	1,41665
7,52400	1,42642
7,53280	1,43619
7,54160	1,44596
7,55040	1,47527
7,55920	1,53389
7,56800	1,57297
7,57680	1,65113
7,58560	1,70975
7,59440	1,81722
7,60320	1,92469
7,61200	2,05170
7,62080	2,18848
7,62960	2,31549
7,63840	2,44250
7,64720	2,57928
7,65600	2,70629
7,66480	2,81376
7,67360	2,89192
7,68240	2,96031
7,69120	2,99939
7,70000	2,99939
7,70880	2,96031
7,71760	2,91146
7,72640	2,81376
7,73520	2,70629
7,74400	2,55974
7,75280	2,40342
7,76160	2,21779
7,77040	2,03216
7,77920	1,86607
7,78800	1,68044
7,79680	1,50458
7,80560	1,35803
7,81440	1,23102
7,82320	1,13332
7,83200	1,07470
7,84080	1,01608
7,84960	0,996540
7,85840	1,01608
7,86720	1,05516
7,87600	1,10401
7,88480	1,18217
7,89360	1,28964
7,90240	1,41665
7,91120	1,56320
7,92000	1,69998
7,92880	1,85630
7,93760	2,01262
7,94640	2,15917
7,95520	2,29595
7,96400	2,41319
7,97280	2,52066
7,98160	2,58905
7,99040	2,64767
7,99920	2,67698
8,00800	2,69652
8,01680	2,69652
8,02560	2,65744
8,03440	2,62813
8,04320	2,57928
8,05200	2,52066
8,06080	2,43273
8,06960	2,38388
8,07840	2,31549
8,08720	2,24710
8,09600	2,17871
8,10480	2,12009
8,11360	2,06147
8,12240	2,02239
8,13120	1,97354
8,14000	1,92469
8,14880	1,89538
8,15760	1,84653
8,16640	1,81722
8,17520	1,77814
8,18400	1,74883
8,19280	1,69998
8,20160	1,66090
8,21040	1,63159
8,21920	1,59251
8,22800	1,54366
8,23680	1,52412
8,24560	1,47527
8,25440	1,45573
8,26320	1,43619
8,27200	1,42642
8,28080	1,42642
8,28960	1,44596
8,29840	1,48504
8,30720	1,51435
8,31600	1,58274
8,32480	1,65113
8,33360	1,74883
8,34240	1,84653
8,35120	1,97354
8,36000	2,07124
8,36880	2,20802
8,37760	2,33503
8,38640	2,46204
8,39520	2,56951
8,40400	2,67698
8,41280	2,73560
8,42160	2,81376
8,43040	2,85284
8,43920	2,86261
8,44800	2,85284
8,45680	2,80399
8,46560	2,74537
8,47440	2,64767
8,48320	2,55974
8,49200	2,41319
8,50080	2,29595
8,50960	2,14940
8,51840	1,99308
8,52720	1,86607
8,53600	1,72929
8,54480	1,59251
8,55360	1,47527
8,56240	1,38734
8,57120	1,31895
8,58000	1,27010
8,58880	1,22125
8,59760	1,22125
8,60640	1,21148
8,61520	1,25056
8,62400	1,28964
8,63280	1,36780
8,64160	1,43619
8,65040	1,51435
8,65920	1,60228
8,66800	1,70975
8,67680	1,83676
8,68560	1,92469
8,69440	2,00285
8,70320	2,11032
8,71200	2,18848
8,72080	2,25687
8,72960	2,30572
8,73840	2,40342
8,74720	2,37411
8,75600	2,42296
8,76480	2,42296
8,77360	2,41319
8,78240	2,39365
8,79120	2,37411
8,80000	2,36434
8,80880	2,33503
8,81760	2,31549
8,82640	2,29595
8,83520	2,25687
8,84400	2,23733
8,85280	2,21779
8,86160	2,19825
8,87040	2,16894
8,87920	2,13963
8,88800	2,12009
8,89680	2,10055
8,90560	2,07124
8,91440	2,04193
8,92320	2,01262
8,93200	1,97354
8,94080	1,92469
8,94960	1,88561
8,95840	1,83676
8,96720	1,77814
