Position [V]	Intensität [Skt]
0,00000	0,00000
0,00880000	0,00000
0,0176000	0,00000
0,0264000	0,00000
0,0352000	0,00000
0,0440000	0,00000
0,0528000	0,00000
0,0616000	0,00000
0,0704000	0,00000
0,0792000	0,00000
0,0880000	0,00000
0,0968000	0,00000
0,105600	0,00000
0,114400	0,00000
0,123200	0,00000
0,132000	0,00000
0,140800	0,00000
0,149600	0,00000
0,158400	0,00000
0,167200	0,00000
0,176000	0,00000
0,184800	0,00000
0,193600	0,00000
0,202400	0,00000
0,211200	0,00000
0,220000	0,00000
0,228800	0,00000
0,237600	0,00000
0,246400	0,00000
0,255200	0,00000
0,264000	0,00000
0,272800	0,00000
0,281600	0,00000
0,290400	0,00000
0,299200	0,00000
0,308000	0,00000
0,316800	0,00000
0,325600	0,00000
0,334400	0,00000
0,343200	0,00000
0,352000	0,00000
0,360800	0,00000
0,369600	0,00000
0,378400	0,00000
0,387200	0,00000
0,396000	0,00000
0,404800	0,00000
0,413600	0,00000
0,422400	0,00000
0,431200	0,00000
0,440000	0,00000
0,448800	0,00000
0,457600	0,00000
0,466400	0,00000
0,475200	0,00000
0,484000	0,00000
0,492800	0,00000
0,501600	0,00000
0,510400	0,00000
0,519200	0,00000
0,528000	0,00000
0,536800	0,00000
0,545600	0,00000
0,554400	0,00000
0,563200	0,00000
0,572000	0,00000
0,580800	0,00000
0,589600	0,00000
0,598400	0,00000
0,607200	0,00000
0,616000	0,00000
0,624800	0,00000
0,633600	0,00000
0,642400	0,00000
0,651200	0,00000
0,660000	0,00000
0,668800	0,00000
0,677600	0,00000
0,686400	0,00000
0,695200	0,00000
0,704000	0,00000
0,712800	0,00000
0,721600	0,00000
0,730400	0,00000
0,739200	0,00000
0,748000	0,00000
0,756800	0,00000
0,765600	0,00000
0,774400	0,00000
0,783200	0,00000
0,792000	0,00000
0,800800	0,00000
0,809600	0,00000
0,818400	0,00000
0,827200	0,00000
0,836000	0,00000
0,844800	0,00000
0,853600	0,00000
0,862400	0,00000
0,871200	0,00000
0,880000	0,00000
0,888800	0,00000
0,897600	0,00000
0,906400	0,00000
0,915200	0,00000
0,924000	0,00000
0,932800	0,00000
0,941600	0,00000
0,950400	0,00000
0,959200	0,00000
0,968000	0,00000
0,976800	0,00000
0,985600	0,00000
0,994400	0,00000
1,00320	0,00000
1,01200	0,00000
1,02080	0,00000
1,02960	0,00000
1,03840	0,00000
1,04720	0,00000
1,05600	0,00000
1,06480	0,00000
1,07360	0,00000
1,08240	0,00000
1,09120	0,00000
1,10000	0,00000
1,10880	0,00000
1,11760	0,00000
1,12640	0,00000
1,13520	0,00000
1,14400	0,00000
1,15280	0,00000
1,16160	0,00000
1,17040	0,00000
1,17920	0,00000
1,18800	0,00000
1,19680	0,00000
1,20560	0,00000
1,21440	0,00000
1,22320	0,00000
1,23200	0,00000
1,24080	0,00000
1,24960	0,00000
1,25840	0,00000
1,26720	0,00000
1,27600	0,00000
1,28480	0,00000
1,29360	0,00000
1,30240	0,00000
1,31120	0,00000
1,32000	0,00000
1,32880	0,00000
1,33760	0,00000
1,34640	0,00000
1,35520	0,00000
1,36400	0,00000
1,37280	0,00000
1,38160	0,00000
1,39040	0,00000
1,39920	0,00000
1,40800	0,00000
1,41680	0,00000
1,42560	0,00000
1,43440	0,00000
1,44320	0,00000
1,45200	0,00000
1,46080	0,00000
1,46960	0,00000
1,47840	0,00000
1,48720	0,00000
1,49600	0,00000
1,50480	0,00000
1,51360	0,00000
1,52240	0,00000
1,53120	0,00000
1,54000	0,00000
1,54880	0,00000
1,55760	0,00000
1,56640	0,00000
1,57520	0,00000
1,58400	0,00000
1,59280	0,00000
1,60160	0,00000
1,61040	0,00000
1,61920	0,00000
1,62800	0,00000
1,63680	0,00000
1,64560	0,00000
1,65440	0,00000
1,66320	0,00000
1,67200	0,00000
1,68080	0,00000
1,68960	0,00000
1,69840	0,00000
1,70720	0,00000
1,71600	0,00000
1,72480	0,00000
1,73360	0,00000
1,74240	0,00000
1,75120	0,00000
1,76000	0,00000
1,76880	0,00000
1,77760	0,00000
1,78640	0,00000
1,79520	0,00000
1,80400	0,00000
1,81280	0,00000
1,82160	0,00000
1,83040	0,00000
1,83920	0,00000
1,84800	0,00000
1,85680	0,00000
1,86560	0,00000
1,87440	0,00000
1,88320	0,00000
1,89200	0,00000
1,90080	0,00000
1,90960	0,00000
Position [V]	Intensität [Skt]
0,00000	2,13963
0,00880000	2,08101
0,0176000	1,99308
0,0264000	1,90515
0,0352000	1,82699
0,0440000	1,75860
0,0528000	1,70975
0,0616000	1,67067
0,0704000	1,64136
0,0792000	1,62182
0,0880000	1,60228
0,0968000	1,58274
0,105600	1,57297
0,114400	1,56320
0,123200	1,56320
0,132000	1,55343
0,140800	1,55343
0,149600	1,54366
0,158400	1,54366
0,167200	1,54366
0,176000	1,53389
0,184800	1,54366
0,193600	1,53389
0,202400	1,53389
0,211200	1,53389
0,220000	1,53389
0,228800	1,53389
0,237600	1,53389
0,246400	1,54366
0,255200	1,54366
0,264000	1,54366
0,272800	1,54366
0,281600	1,54366
0,290400	1,55343
0,299200	1,55343
0,308000	1,56320
0,316800	1,57297
0,325600	1,57297
0,334400	1,58274
0,343200	1,59251
0,352000	1,59251
0,360800	1,60228
0,369600	1,60228
0,378400	1,61205
0,387200	1,61205
0,396000	1,62182
0,404800	1,62182
0,413600	1,64136
0,422400	1,64136
0,431200	1,64136
0,440000	1,64136
0,448800	1,64136
0,457600	1,64136
0,466400	1,64136
0,475200	1,65113
0,484000	1,65113
0,492800	1,65113
0,501600	1,64136
0,510400	1,64136
0,519200	1,63159
0,528000	1,63159
0,536800	1,63159
0,545600	1,62182
0,554400	1,62182
0,563200	1,61205
0,572000	1,60228
0,580800	1,59251
0,589600	1,58274
0,598400	1,57297
0,607200	1,55343
0,616000	1,55343
0,624800	1,56320
0,633600	1,53389
0,642400	1,53389
0,651200	1,52412
0,660000	1,51435
0,668800	1,50458
0,677600	1,49481
0,686400	1,49481
0,695200	1,49481
0,704000	1,49481
0,712800	1,48504
0,721600	1,48504
0,730400	1,48504
0,739200	1,48504
0,748000	1,49481
0,756800	1,50458
0,765600	1,50458
0,774400	1,51435
0,783200	1,52412
0,792000	1,54366
0,800800	1,55343
0,809600	1,56320
0,818400	1,57297
0,827200	1,58274
0,836000	1,60228
0,844800	1,61205
0,853600	1,63159
0,862400	1,64136
0,871200	1,65113
0,880000	1,66090
0,888800	1,67067
0,897600	1,68044
0,906400	1,69021
0,915200	1,69021
0,924000	1,69998
0,932800	1,70975
0,941600	1,70975
0,950400	1,70975
0,959200	1,70975
0,968000	1,70975
0,976800	1,70975
0,985600	1,70975
0,994400	1,68044
1,00320	1,68044
1,01200	1,67067
1,02080	1,65113
1,02960	1,64136
1,03840	1,61205
1,04720	1,60228
1,05600	1,59251
1,06480	1,57297
1,07360	1,55343
1,08240	1,53389
1,09120	1,51435
1,10000	1,49481
1,10880	1,47527
1,11760	1,46550
1,12640	1,44596
1,13520	1,43619
1,14400	1,42642
1,15280	1,41665
1,16160	1,40688
1,17040	1,40688
1,17920	1,40688
1,18800	1,39711
1,19680	1,40688
1,20560	1,41665
1,21440	1,42642
1,22320	1,44596
1,23200	1,46550
1,24080	1,47527
1,24960	1,50458
1,25840	1,52412
1,26720	1,54366
1,27600	1,58274
1,28480	1,60228
1,29360	1,63159
1,30240	1,66090
1,31120	1,69998
1,32000	1,71952
1,32880	1,74883
1,33760	1,77814
1,34640	1,79768
1,35520	1,82699
1,36400	1,84653
1,37280	1,85630
1,38160	1,86607
1,39040	1,86607
1,39920	1,85630
1,40800	1,84653
1,41680	1,83676
1,42560	1,80745
1,43440	1,78791
1,44320	1,75860
1,45200	1,71952
1,46080	1,67067
1,46960	1,64136
1,47840	1,57297
1,48720	1,51435
1,49600	1,46550
1,50480	1,40688
1,51360	1,34826
1,52240	1,28964
1,53120	1,24079
1,54000	1,19194
1,54880	1,17240
1,55760	1,12355
1,56640	1,10401
1,57520	1,09424
1,58400	1,10401
1,59280	1,11378
1,60160	1,13332
1,61040	1,17240
1,61920	1,22125
1,62800	1,27987
1,63680	1,34826
1,64560	1,42642
1,65440	1,50458
1,66320	1,59251
1,67200	1,68044
1,68080	1,76837
1,68960	1,85630
1,69840	1,93446
1,70720	2,01262
1,71600	2,07124
1,72480	2,12986
1,73360	2,17871
1,74240	2,18848
1,75120	2,19825
1,76000	2,19825
1,76880	2,16894
1,77760	2,12986
1,78640	2,08101
1,79520	2,01262
1,80400	1,94423
1,81280	1,85630
1,82160	1,75860
1,83040	1,64136
1,83920	1,52412
1,84800	1,38734
1,85680	1,26033
1,86560	1,14309
1,87440	1,03562
1,88320	0,947690
1,89200	0,879300
1,90080	0,840220
1,90960	0,820680
1,91840	0,810910
1,92720	0,840220
1,93600	0,879300
1,94480	0,947690
1,95360	1,03562
1,96240	1,13332
1,97120	1,25056
1,98000	1,36780
1,98880	1,49481
1,99760	1,62182
2,00640	1,74883
2,01520	1,87584
2,02400	1,99308
2,03280	2,10055
2,04160	2,18848
2,05040	2,26664
2,05920	2,32526
2,06800	2,36434
2,07680	2,37411
2,08560	2,37411
2,09440	2,34480
2,10320	2,28618
2,11200	2,21779
2,12080	2,12986
2,12960	2,02239
2,13840	1,91492
2,14720	1,79768
2,15600	1,67067
2,16480	1,54366
2,17360	1,41665
2,18240	1,29941
2,19120	1,19194
2,20000	1,10401
2,20880	1,01608
2,21760	0,947690
2,22640	0,908610
2,23520	0,879300
2,24400	0,869530
2,25280	0,879300
2,26160	0,908610
2,27040	0,947690
2,27920	1,01608
2,28800	1,08447
2,29680	1,16263
2,30560	1,26033
2,31440	1,35803
2,32320	1,46550
2,33200	1,56320
2,34080	1,67067
2,34960	1,76837
2,35840	1,85630
2,36720	1,93446
2,37600	2,00285
2,38480	2,05170
2,39360	2,09078
2,40240	2,12009
2,41120	2,12986
2,42000	2,12009
2,42880	2,10055
2,43760	2,06147
2,44640	2,02239
2,45520	1,97354
2,46400	1,90515
2,47280	1,83676
2,48160	1,75860
2,49040	1,68044
2,49920	1,59251
2,50800	1,53389
2,51680	1,46550
2,52560	1,39711
2,53440	1,34826
2,54320	1,28964
2,55200	1,25056
2,56080	1,23102
2,56960	1,21148
2,57840	1,20171
2,58720	1,20171
2,59600	1,21148
2,60480	1,22125
2,61360	1,25056
2,62240	1,28964
2,63120	1,32872
2,64000	1,36780
2,64880	1,41665
2,65760	1,46550
2,66640	1,52412
2,67520	1,55343
2,68400	1,60228
2,69280	1,64136
2,70160	1,68044
2,71040	1,70975
2,71920	1,73906
2,72800	1,78791
2,73680	1,79768
2,74560	1,81722
2,75440	1,80745
2,76320	1,80745
2,77200	1,80745
2,78080	1,78791
2,78960	1,77814
2,79840	1,74883
2,80720	1,72929
2,81600	1,69998
2,82480	1,67067
2,83360	1,65113
2,84240	1,62182
2,85120	1,58274
2,86000	1,56320
2,86880	1,53389
2,87760	1,50458
2,88640	1,48504
2,89520	1,48504
2,90400	1,45573
2,91280	1,43619
2,92160	1,42642
2,93040	1,42642
2,93920	1,42642
2,94800	1,42642
2,95680	1,43619
2,96560	1,44596
2,97440	1,45573
2,98320	1,47527
2,99200	1,48504
3,00080	1,50458
3,00960	1,52412
3,01840	1,54366
3,02720	1,57297
3,03600	1,59251
3,04480	1,60228
3,05360	1,62182
3,06240	1,64136
3,07120	1,66090
3,08000	1,67067
3,08880	1,68044
3,09760	1,68044
3,10640	1,68044
3,11520	1,69021
3,12400	1,69021
3,13280	1,67067
3,14160	1,67067
3,15040	1,65113
3,15920	1,64136
3,16800	1,62182
3,17680	1,61205
3,18560	1,60228
3,19440	1,58274
3,20320	1,56320
3,21200	1,55343
3,22080	1,54366
3,22960	1,52412
3,23840	1,51435
3,24720	1,51435
3,25600	1,50458
3,26480	1,49481
3,27360	1,49481
3,28240	1,49481
3,29120	1,49481
3,30000	1,49481
3,30880	1,50458
3,31760	1,51435
3,32640	1,52412
3,33520	1,53389
3,34400	1,55343
3,35280	1,55343
3,36160	1,57297
3,37040	1,58274
3,37920	1,59251
3,38800	1,60228
3,39680	1,59251
3,40560	1,61205
3,41440	1,61205
3,42320	1,62182
3,43200	1,62182
3,44080	1,62182
3,44960	1,62182
3,45840	1,63159
3,46720	1,62182
3,47600	1,62182
3,48480	1,61205
3,49360	1,61205
3,50240	1,61205
3,51120	1,60228
3,52000	1,60228
3,52880	1,59251
3,53760	1,59251
3,54640	1,58274
3,55520	1,58274
3,56400	1,57297
3,57280	1,57297
3,58160	1,56320
3,59040	1,56320
3,59920	1,56320
3,60800	1,55343
3,61680	1,55343
3,62560	1,55343
3,63440	1,55343
3,64320	1,55343
3,65200	1,55343
3,66080	1,55343
3,66960	1,55343
3,67840	1,55343
3,68720	1,56320
3,69600	1,57297
3,70480	1,57297
3,71360	1,57297
3,72240	1,57297
3,73120	1,58274
3,74000	1,58274
3,74880	1,59251
3,75760	1,60228
3,76640	1,59251
3,77520	1,60228
3,78400	1,60228
3,79280	1,60228
3,80160	1,62182
3,81040	1,60228
3,81920	1,60228
3,82800	1,60228
3,83680	1,60228
3,84560	1,58274
3,85440	1,58274
3,86320	1,57297
3,87200	1,57297
3,88080	1,58274
3,88960	1,58274
3,89840	1,58274
3,90720	1,57297
3,91600	1,57297
3,92480	1,57297
3,93360	1,57297
3,94240	1,63159
3,95120	1,75860
3,96000	1,90515
3,96880	2,05170
3,97760	2,18848
3,98640	2,28618
3,99520	2,36434
4,00400	2,42296
4,01280	2,47181
4,02160	2,51089
4,03040	2,54997
4,03920	2,58905
4,04800	2,61836
4,05680	2,65744
4,06560	2,69652
4,07440	2,72583
4,08320	2,75514
4,09200	2,78445
4,10080	2,82353
4,10960	2,87238
4,11840	2,93100
4,12720	2,97985
4,13600	3,01893
4,14480	3,06778
4,15360	3,09709
4,16240	3,12640
4,17120	3,15571
4,18000	3,17525
4,18880	3,18502
4,19760	3,18502
4,20640	3,18502
4,21520	3,18502
4,22400	3,19479
4,23280	3,16548
4,24160	3,14594
4,25040	3,12640
4,25920	3,10686
4,26800	3,10686
4,27680	3,10686
4,28560	3,11663
4,29440	3,10686
4,30320	3,11663
4,31200	3,11663
4,32080	3,12640
4,32960	3,13617
4,33840	3,14594
4,34720	3,15571
4,35600	3,16548
4,36480	3,16548
4,37360	3,17525
4,38240	3,18502
4,39120	3,19479
4,40000	3,20456
4,40880	3,22410
4,41760	3,23387
4,42640	3,22410
4,43520	3,22410
4,44400	3,22410
4,45280	3,21433
4,46160	3,21433
4,47040	3,20456
4,47920	3,20456
4,48800	3,20456
4,49680	3,20456
4,50560	3,19479
4,51440	3,19479
4,52320	3,19479
4,53200	3,17525
4,54080	3,16548
4,54960	3,16548
4,55840	3,17525
4,56720	3,15571
4,57600	3,15571
4,58480	3,16548
4,59360	3,16548
4,60240	3,15571
4,61120	3,16548
4,62000	3,16548
4,62880	3,17525
4,63760	3,16548
4,64640	3,16548
4,65520	3,16548
4,66400	3,16548
4,67280	3,17525
4,68160	3,18502
4,69040	3,20456
4,69920	3,23387
4,70800	3,26318
4,71680	3,28272
4,72560	3,29249
4,73440	3,31203
4,74320	3,32180
4,75200	3,34134
4,76080	3,36088
4,76960	3,38042
4,77840	3,39996
4,78720	3,41950
4,79600	3,43904
4,80480	3,46835
4,81360	3,47812
4,82240	3,48789
4,83120	3,49766
4,84000	3,47812
4,84880	3,43904
4,85760	3,41950
4,86640	3,40973
4,87520	3,41950
4,88400	3,40973
4,89280	3,39996
4,90160	3,38042
4,91040	3,35111
4,91920	3,34134
4,92800	3,33157
4,93680	3,32180
4,94560	3,25341
4,95440	3,02870
4,96320	2,76491
4,97200	2,51089
4,98080	2,28618
4,98960	2,11032
4,99840	1,96377
5,00720	1,86607
5,01600	1,77814
5,02480	1,70975
5,03360	1,66090
5,04240	1,62182
5,05120	1,61205
5,06000	1,58274
5,06880	1,58274
5,07760	1,57297
5,08640	1,57297
5,09520	1,57297
5,10400	1,56320
5,11280	1,56320
5,12160	1,56320
5,13040	1,56320
5,13920	1,56320
5,14800	1,56320
5,15680	1,57297
5,16560	1,56320
5,17440	1,56320
5,18320	1,56320
5,19200	1,56320
5,20080	1,56320
5,20960	1,56320
5,21840	1,56320
5,22720	1,56320
5,23600	1,56320
5,24480	1,56320
5,25360	1,56320
5,26240	1,56320
5,27120	1,56320
5,28000	1,56320
5,28880	1,56320
5,29760	1,57297
5,30640	1,57297
5,31520	1,59251
5,32400	1,60228
5,33280	1,61205
5,34160	1,61205
5,35040	1,62182
5,35920	1,63159
5,36800	1,63159
5,37680	1,62182
5,38560	1,63159
5,39440	1,63159
5,40320	1,62182
5,41200	1,62182
5,42080	1,62182
5,42960	1,63159
5,43840	1,63159
5,44720	1,62182
5,45600	1,62182
5,46480	1,63159
5,47360	1,62182
5,48240	1,62182
5,49120	1,62182
5,50000	1,63159
5,50880	1,64136
5,51760	1,63159
5,52640	1,62182
5,53520	1,63159
5,54400	1,64136
5,55280	1,63159
5,56160	1,63159
5,57040	1,63159
5,57920	1,64136
5,58800	1,62182
5,59680	1,62182
5,60560	1,62182
5,61440	1,62182
5,62320	1,62182
5,63200	1,63159
5,64080	1,64136
5,64960	1,65113
5,65840	1,66090
5,66720	1,66090
5,67600	1,67067
5,68480	1,67067
5,69360	1,69021
5,70240	1,69021
5,71120	1,69998
5,72000	1,70975
5,72880	1,70975
5,73760	1,70975
5,74640	1,70975
5,75520	1,69998
5,76400	1,69998
5,77280	1,69998
5,78160	1,69021
5,79040	1,69021
5,79920	1,69021
5,80800	1,68044
5,81680	1,68044
5,82560	1,67067
5,83440	1,66090
5,84320	1,67067
5,85200	1,67067
5,86080	1,66090
5,86960	1,66090
5,87840	1,67067
5,88720	1,67067
5,89600	1,67067
5,90480	1,68044
5,91360	1,68044
5,92240	1,69021
5,93120	1,69998
5,94000	1,70975
5,94880	1,71952
5,95760	1,72929
5,96640	1,72929
5,97520	1,73906
5,98400	1,75860
5,99280	1,77814
6,00160	1,78791
6,01040	1,78791
6,01920	1,79768
6,02800	1,80745
6,03680	1,80745
6,04560	1,81722
6,05440	1,82699
6,06320	1,83676
6,07200	1,85630
6,08080	1,85630
6,08960	1,86607
6,09840	1,88561
6,10720	1,90515
6,11600	1,91492
6,12480	1,93446
6,13360	1,93446
6,14240	1,93446
6,15120	1,93446
6,16000	1,93446
6,16880	1,94423
6,17760	1,94423
6,18640	1,94423
6,19520	1,94423
6,20400	1,94423
6,21280	1,95400
6,22160	1,93446
6,23040	1,93446
6,23920	1,93446
6,24800	1,95400
6,25680	1,95400
6,26560	1,95400
6,27440	1,99308
6,28320	1,98331
6,29200	1,93446
6,30080	1,87584
6,30960	1,79768
6,31840	1,73906
6,32720	1,69021
6,33600	1,66090
6,34480	1,63159
6,35360	1,61205
6,36240	1,59251
6,37120	1,58274
6,38000	1,57297
6,38880	1,56320
6,39760	1,56320
6,40640	1,56320
6,41520	1,55343
6,42400	1,55343
6,43280	1,55343
6,44160	1,55343
6,45040	1,55343
6,45920	1,55343
6,46800	1,54366
6,47680	1,54366
6,48560	1,54366
6,49440	1,54366
6,50320	1,55343
6,51200	1,55343
6,52080	1,54366
6,52960	1,54366
6,53840	1,54366
6,54720	1,54366
6,55600	1,54366
6,56480	1,54366
6,57360	1,54366
6,58240	1,54366
6,59120	1,54366
6,60000	1,54366
6,60880	1,54366
6,61760	1,54366
6,62640	1,54366
6,63520	1,54366
6,64400	1,53389
6,65280	1,54366
6,66160	1,54366
6,67040	1,54366
6,67920	1,54366
6,68800	1,55343
6,69680	1,54366
6,70560	1,54366
6,71440	1,55343
6,72320	1,55343
6,73200	1,55343
6,74080	1,55343
6,74960	1,55343
6,75840	1,55343
6,76720	1,54366
6,77600	1,55343
6,78480	1,55343
6,79360	1,55343
6,80240	1,55343
6,81120	1,54366
6,82000	1,55343
6,82880	1,54366
6,83760	1,54366
6,84640	1,55343
6,85520	1,55343
6,86400	1,54366
6,87280	1,54366
6,88160	1,54366
6,89040	1,54366
6,89920	1,53389
6,90800	1,53389
6,91680	1,54366
6,92560	1,53389
6,93440	1,54366
6,94320	1,54366
6,95200	1,54366
6,96080	1,54366
6,96960	1,54366
6,97840	1,55343
6,98720	1,55343
6,99600	1,55343
7,00480	1,54366
7,01360	1,54366
7,02240	1,55343
7,03120	1,55343
7,04000	1,55343
7,04880	1,55343
7,05760	1,55343
7,06640	1,55343
7,07520	1,54366
7,08400	1,54366
7,09280	1,54366
7,10160	1,54366
7,11040	1,54366
7,11920	1,54366
7,12800	1,54366
7,13680	1,54366
7,14560	1,54366
7,15440	1,54366
7,16320	1,54366
7,17200	1,54366
7,18080	1,54366
7,18960	1,54366
7,19840	1,54366
7,20720	1,55343
7,21600	1,55343
7,22480	1,55343
7,23360	1,55343
7,24240	1,55343
7,25120	1,55343
7,26000	1,55343
7,26880	1,55343
7,27760	1,55343
7,28640	1,55343
7,29520	1,55343
7,30400	1,55343
7,31280	1,55343
7,32160	1,55343
7,33040	1,55343
7,33920	1,55343
7,34800	1,54366
7,35680	1,55343
7,36560	1,55343
7,37440	1,55343
7,38320	1,54366
7,39200	1,54366
7,40080	1,54366
7,40960	1,54366
7,41840	1,54366
7,42720	1,54366
7,43600	1,54366
7,44480	1,54366
7,45360	1,54366
7,46240	1,54366
7,47120	1,54366
7,48000	1,54366
7,48880	1,54366
7,49760	1,54366
7,50640	1,54366
7,51520	1,54366
7,52400	1,54366
7,53280	1,54366
7,54160	1,55343
7,55040	1,55343
7,55920	1,56320
7,56800	1,55343
7,57680	1,54366
7,58560	1,54366
7,59440	1,54366
7,60320	1,54366
7,61200	1,55343
7,62080	1,55343
7,62960	1,55343
7,63840	1,55343
7,64720	1,55343
7,65600	1,55343
7,66480	1,55343
7,67360	1,55343
7,68240	1,55343
7,69120	1,55343
7,70000	1,55343
7,70880	1,56320
7,71760	1,56320
7,72640	1,55343
7,73520	1,56320
7,74400	1,57297
7,75280	1,57297
7,76160	1,59251
7,77040	1,59251
7,77920	1,61205
7,78800	1,61205
7,79680	1,62182
7,80560	1,61205
7,81440	1,62182
7,82320	1,62182
7,83200	1,62182
7,84080	1,62182
7,84960	1,63159
7,85840	1,66090
7,86720	1,69021
7,87600	1,72929
7,88480	1,75860
7,89360	1,79768
7,90240	1,82699
7,91120	1,86607
7,92000	1,89538
7,92880	1,93446
7,93760	1,98331
7,94640	2,03216
7,95520	2,05170
7,96400	2,07124
7,97280	2,09078
7,98160	2,11032
7,99040	2,12986
7,99920	2,13963
8,00800	2,14940
8,01680	2,20802
8,02560	2,27641
8,03440	2,38388
8,04320	2,47181
8,05200	2,56951
8,06080	2,63790
8,06960	2,64767
8,07840	2,60859
8,08720	2,56951
8,09600	2,56951
8,10480	2,58905
8,11360	2,63790
8,12240	2,72583
8,13120	2,80399
8,14000	2,87238
8,14880	2,93100
8,15760	2,97985
8,16640	2,98962
8,17520	2,97985
8,18400	2,97008
8,19280	2,95054
8,20160	2,91146
8,21040	2,90169
8,21920	2,92123
8,22800	2,95054
8,23680	2,97008
8,24560	2,95054
8,25440	2,96031
8,26320	2,97985
8,27200	2,97985
8,28080	2,95054
8,28960	2,90169
8,29840	2,85284
8,30720	2,79422
8,31600	2,75514
8,32480	2,73560
8,33360	2,75514
8,34240	2,77468
8,35120	2,78445
8,36000	2,81376
8,36880	2,83330
8,37760	2,86261
8,38640	2,88215
8,39520	2,92123
8,40400	2,96031
8,41280	2,99939
8,42160	3,00916
8,43040	2,98962
8,43920	2,91146
8,44800	2,80399
8,45680	2,66721
8,46560	2,53043
8,47440	2,40342
8,48320	2,28618
8,49200	2,19825
8,50080	2,12986
8,50960	2,07124
8,51840	2,04193
8,52720	2,02239
8,53600	2,01262
8,54480	2,00285
8,55360	1,98331
8,56240	1,96377
8,57120	1,94423
8,58000	1,93446
8,58880	1,92469
8,59760	1,91492
8,60640	1,90515
8,61520	1,90515
8,62400	1,92469
8,63280	1,94423
8,64160	1,98331
8,65040	2,03216
8,65920	2,10055
8,66800	2,13963
8,67680	2,17871
8,68560	2,22756
8,69440	2,29595
8,70320	2,35457
8,71200	2,41319
8,72080	2,44250
8,72960	2,47181
8,73840	2,48158
8,74720	2,47181
8,75600	2,45227
8,76480	2,42296
8,77360	2,38388
8,78240	2,34480
8,79120	2,31549
8,80000	2,28618
8,80880	2,26664
8,81760	2,25687
8,82640	2,23733
8,83520	2,22756
8,84400	2,21779
8,85280	2,22756
8,86160	2,21779
8,87040	2,21779
8,87920	2,21779
8,88800	2,22756
8,89680	2,21779
8,90560	2,22756
8,91440	2,24710
8,92320	2,25687
8,93200	2,26664
8,94080	2,27641
8,94960	2,28618
8,95840	2,31549
8,96720	2,33503
